使用上の注意

・helium は、自信が全くありません。
  松本君の結果を待ち切れずに、
  ごく短時間で出したものですので、チェックの甘さは 
  proton の比較になりません。(ほとんど、ノーチェック)
  また、エネルギーロスが正しく入っていないことを発見したので、
  １GeV 以下は、問題をはらんでいます(カナダで時間があれば直すつもり)。

・１GeV 以下の low energy では、大気の secondary について、
  もう少し学ぶ必要がありそうです。

・エネルギーの bin の切り方は、bin の境目を 10^(i/15) としています。

・表中のエネルギーは、各 bin の log での中央値です。
  本来は、各 bin に入ったイベントの平均値を出す予定だったのですが、
  時間切れで出来ていません(カナダで時間があれば直すつもり)。

・一応、200GV (rigidityです) 位までのデータをお送りしますが、
  proton は 108GeV、helium は50GeV/n (kinetic energy) までを見て下さい。
  その先は、resolution function の影響が見えています。

・エラーは、統計誤差のみです。

・proton は、deuteron を引いたものも、示します。
  これは、TOF で p/d を分けられる 3GV までのデータから、d は p の２％と
  予測し、単に 0.98 を掛けただけです。

・データを見せる場合は、上に書いたエネルギー(108GeV for p, 50GeV/n for He)
  より高エネルギー側は、プロットしないで下さい。
  ICRC での扱いは、折戸とも相談して下さい。

思い付く注意事項はこんなものです。

いつかのように、変なデータを送っていないか、チェックしてみて下さい。

七夕の頃には、実験準備も落ち着いて来るはずですので、
多少は解析も出来るかも知れません。
メールは、うまくすれば今週末には使えるようになるかも知れません。
アドレスは、同じ(sanuki@icepp.s.u-tokyo.ac.jp)です。

佐貫


proton

  Ek(GeV)	      Flux          dFlux          F d引いた     そのエラー
0.1079775         0.000000       0.000000         0.000000       0.000000    
0.1258925         0.000000       0.000000         0.000000       0.000000    
0.1467799         618.4099       24.42572         618.4099       24.42572    
0.1711328         1164.162       32.14004         1164.162       32.14004    
0.1995262         1382.110       33.74013         1382.110       33.74013    
0.2326305         1514.845       33.51460         1514.845       33.51460    
0.2712273         1556.015       31.96241         1556.015       31.96241    
0.3162278         1618.434       30.42836         1618.434       30.42836    
0.3686945         1597.678       28.12919         1597.678       28.12919    
0.4298662         1532.247       25.55520         1532.247       25.55520    
0.5011872         1444.436       23.02639         1444.436       23.02639    
0.5843414         1365.919       20.55235         1365.919       20.55235    
0.6812921         1219.067       17.88303         1219.067       17.88303    
0.7943282         1105.119       15.71223         1105.119       15.71223    
0.9261187         982.9481       13.67847         982.9481       13.67847    
 1.079775         854.8292       11.84638         854.8292       11.84638    
 1.258925         740.6557       10.25135         740.6557       10.25135    
 1.467799         641.8616       8.860221         641.8616       8.860221    
 1.711328         523.5761       7.396353         523.5761       7.396353    
 1.995262         434.2166       6.249823         434.2165       6.249823    
 2.326305         347.9533       5.177212         347.9480       5.177133    
 2.712273         272.0490       4.243519         271.8883       4.241014    
 3.162278         214.3063       3.492629         213.3902       3.477699    
 3.686945         164.4626       2.851714         162.6163       2.819700    
 4.298662         121.8234       2.268078         119.8077       2.230549    
 5.011872         92.96993       1.849804         91.21496       1.814886    
 5.843414         66.47881       1.438410         65.17239       1.410143    
 6.812921         47.46016      0.1645949         46.51648      0.1613221    
 7.943282         33.12000      0.1229622         32.45900      0.1205081    
 9.261188         23.39083      0.9397090E-01     22.92352      0.9209351E-01
 10.79775         16.50058      0.7248887E-01     16.17074      0.7103985E-01
 12.58925         11.39718      0.5555106E-01     11.16929      0.5444032E-01
 14.67799         7.802645      0.4248040E-01     7.646627      0.4163099E-01
 17.11328         5.391951      0.3267669E-01     5.284130      0.3202327E-01
 19.95262         3.670747      0.2496587E-01     3.597343      0.2446662E-01
 23.26305         2.424594      0.1879587E-01     2.376107      0.1841998E-01
 27.12273         1.623505      0.1425059E-01     1.591038      0.1396561E-01
 31.62278         1.063533      0.1068783E-01     1.042264      0.1047409E-01
 36.86945        0.7129952      0.8109027E-02    0.6987368      0.7946864E-02
 42.98662        0.4731978      0.6121724E-02    0.4637348      0.5999302E-02
 50.11872        0.3121675      0.4608172E-02    0.3059249      0.4516019E-02
 58.43414        0.2031598      0.3445367E-02    0.1990970      0.3376467E-02
 68.12920        0.1320811      0.2574528E-02    0.1294397      0.2523043E-02
 79.43282        0.8897090E-01  0.1957888E-02    0.8719168E-01  0.1918735E-02
 92.61187        0.5931306E-01  0.1481438E-02    0.5812691E-01  0.1451812E-02
 107.9775        0.3877328E-01  0.1109621E-02    0.3799789E-01  0.1087431E-02
 125.8925        0.2764045E-01  0.8680128E-03    0.2708770E-01  0.8506543E-03
 146.7799        0.1790902E-01  0.6475021E-03    0.1755088E-01  0.6345533E-03
 171.1328        0.1241625E-01  0.4994549E-03    0.1216795E-01  0.4894668E-03
 199.5262        0.8362128E-02  0.3797047E-03    0.8194904E-02  0.3721114E-03


helium

0.1079775         115.4988       9.130981    
0.1258925         140.1571       9.406727    
0.1467799         162.5053       9.461427    
0.1711328         188.5294       9.595896    
0.1995262         223.2501       9.752726    
0.2326305         223.9492       8.908220    
0.2712273         219.8258       8.255732    
0.3162278         203.4384       7.364963    
0.3686945         206.9745       6.949524    
0.4298662         196.7265       6.297063    
0.5011872         172.8627       5.441966    
0.5843414         150.4003       4.768009    
0.6812921         136.9417       4.200192    
0.7943282         111.1114       3.517169    
0.9261187         94.40084       3.013987    
 1.079775         77.87562       2.560534    
 1.258925         64.26910       2.161603    
 1.467799         51.55587       1.788453    
 1.711328         42.77079       1.510289    
 1.995262         32.05132       1.223725    
 2.326305         25.52693       1.015407    
 2.712273         19.07428      0.8178031    
 3.162278         13.73789      0.6476101    
 3.686945         10.30380      0.5177853    
 4.298662         8.555719      0.4406420    
 5.011872         5.468224      0.3262069    
 5.843414         3.947668      0.2586204    
 6.812921         2.834081      0.4157887E-01
 7.943282         1.930402      0.3188678E-01
 9.261188         1.387070      0.2514889E-01
 10.79775        0.9568316      0.1933092E-01
 12.58925        0.6520245      0.1481491E-01
 14.67799        0.4357204      0.1124276E-01
 17.11328        0.3000170      0.8657137E-02
 19.95262        0.1890385      0.6379741E-02
 23.26305        0.1452675      0.5191437E-02
 27.12273        0.8538107E-01  0.3691346E-02
 31.62278        0.5733782E-01  0.2807845E-02
 36.86945        0.4111869E-01  0.2207367E-02
 42.98662        0.2590929E-01  0.1625694E-02
 50.11872        0.1773513E-01  0.1247839E-02
 58.43414        0.1292419E-01  0.9883371E-03
 68.12920        0.8856251E-02  0.7594172E-03
 79.43282        0.5488705E-02  0.5544429E-03
 92.61187        0.3522564E-02  0.4122850E-03


