 # E(MeV)  SigT  SigInela  SigEla  (mb)
    1.00        0.00        0.00        0.00    
    1.26        0.00        0.00        0.00    
    1.58        0.00        0.00        0.00    
    2.00        0.00        0.00        0.00    
    2.51        0.00        0.00        0.00    
    3.16        0.00        0.00        0.00    
    3.98        0.00        0.00        0.00    
    5.01        0.00        0.00        0.00    
    6.31        0.00        0.00        0.00    
    7.94        0.00        0.00        0.00    
    10.0        0.00        0.00        0.00    
    12.6        0.00        0.00        0.00    
    15.8        0.00        0.00        0.00    
    20.0        0.00        0.00        0.00    
    25.1        96.0        96.0        0.00    
    31.6        663.        663.        0.00    
    39.8       1.107E+03   1.107E+03    0.00    
    50.1       1.447E+03   1.447E+03    0.00    
    63.1       1.711E+03   1.711E+03    0.00    
    79.4       1.916E+03   1.916E+03    0.00    
    100.       2.056E+03   2.056E+03    0.00    
    126.       2.150E+03   2.150E+03    0.00    
    158.       2.227E+03   2.227E+03    0.00    
    200.       2.227E+03   2.227E+03    0.00    
    251.       2.201E+03   2.201E+03    0.00    
    316.       2.063E+03   2.063E+03    0.00    
    398.       1.930E+03   1.930E+03    0.00    
    501.       1.853E+03   1.853E+03    0.00    
    631.       1.795E+03   1.795E+03    0.00    
    794.       1.724E+03   1.724E+03    0.00    
   1.000E+03   1.679E+03   1.679E+03    0.00    
   1.259E+03   1.667E+03   1.667E+03    0.00    
   1.585E+03   1.653E+03   1.653E+03    0.00    
   1.995E+03   1.672E+03   1.672E+03    0.00    
   2.512E+03   1.693E+03   1.693E+03    0.00    
   3.162E+03   1.724E+03   1.724E+03    0.00    
   3.981E+03   1.747E+03   1.747E+03    0.00    
   5.012E+03   1.751E+03   1.751E+03    0.00    
   6.310E+03   1.747E+03   1.747E+03    0.00    
   7.943E+03   1.730E+03   1.730E+03    0.00    
   1.000E+04   1.715E+03   1.715E+03    0.00    
   1.259E+04   1.716E+03   1.716E+03    0.00    
   1.585E+04   1.716E+03   1.716E+03    0.00    
   1.995E+04   1.716E+03   1.716E+03    0.00    
   2.512E+04   1.716E+03   1.716E+03    0.00    
   3.162E+04   1.716E+03   1.716E+03    0.00    
   3.981E+04   1.716E+03   1.716E+03    0.00    
   5.012E+04   1.716E+03   1.716E+03    0.00    
   6.310E+04   1.716E+03   1.716E+03    0.00    
   7.943E+04   1.716E+03   1.716E+03    0.00    
   1.000E+05   1.716E+03   1.716E+03    0.00    
   1.259E+05   1.716E+03   1.716E+03    0.00    
   1.585E+05   1.716E+03   1.716E+03    0.00    
   1.995E+05   1.716E+03   1.716E+03    0.00    
   2.512E+05   1.716E+03   1.716E+03    0.00    
   3.162E+05   1.715E+03   1.715E+03    0.00    
   3.981E+05   1.715E+03   1.715E+03    0.00    
   5.012E+05   1.715E+03   1.715E+03    0.00    
   6.310E+05   1.715E+03   1.715E+03    0.00    
   7.943E+05   1.715E+03   1.715E+03    0.00    
   1.000E+06   1.715E+03   1.715E+03    0.00    
   1.259E+06   1.715E+03   1.715E+03    0.00    
   1.585E+06   1.715E+03   1.715E+03    0.00    
   1.995E+06   1.715E+03   1.715E+03    0.00    
   2.512E+06   1.715E+03   1.715E+03    0.00    
   3.162E+06   1.715E+03   1.715E+03    0.00    
   3.981E+06   1.715E+03   1.715E+03    0.00    
   5.012E+06   1.714E+03   1.714E+03    0.00    
   6.310E+06   1.714E+03   1.714E+03    0.00    
   7.943E+06   1.714E+03   1.714E+03    0.00    
   1.000E+07   1.714E+03   1.714E+03    0.00    
   1.259E+07   1.714E+03   1.714E+03    0.00    
   1.585E+07   1.714E+03   1.714E+03    0.00    
   1.995E+07   1.714E+03   1.714E+03    0.00    
   2.512E+07   1.714E+03   1.714E+03    0.00    
   3.162E+07   1.714E+03   1.714E+03    0.00    
   3.981E+07   1.714E+03   1.714E+03    0.00    
   5.012E+07   1.714E+03   1.714E+03    0.00    
   6.310E+07   1.714E+03   1.714E+03    0.00    
   7.943E+07   1.714E+03   1.714E+03    0.00    
   1.000E+08   1.714E+03   1.714E+03    0.00    
   1.259E+08   1.714E+03   1.714E+03    0.00    
   1.585E+08   1.714E+03   1.714E+03    0.00    
   1.995E+08   1.714E+03   1.714E+03    0.00    
   2.512E+08   1.714E+03   1.714E+03    0.00    
   3.162E+08   1.714E+03   1.714E+03    0.00    
   3.981E+08   1.714E+03   1.714E+03    0.00    
   5.012E+08   1.714E+03   1.714E+03    0.00    
   6.310E+08   1.714E+03   1.714E+03    0.00    
   7.943E+08   1.714E+03   1.714E+03    0.00    
   1.000E+09   1.714E+03   1.714E+03    0.00    
   1.259E+09   1.714E+03   1.714E+03    0.00    
   1.585E+09   1.714E+03   1.714E+03    0.00    
   1.995E+09   1.714E+03   1.714E+03    0.00    
   2.512E+09   1.714E+03   1.714E+03    0.00    
   3.162E+09   1.714E+03   1.714E+03    0.00    
   3.981E+09   1.714E+03   1.714E+03    0.00    
