 # E(MeV)  SigT  SigInela  SigEla  (mb)
    1.00        0.00        0.00        0.00    
    1.26        0.00        0.00        0.00    
    1.58        0.00        0.00        0.00    
    2.00        0.00        0.00        0.00    
    2.51        0.00        0.00        0.00    
    3.16        0.00        0.00        0.00    
    3.98        0.00        0.00        0.00    
    5.01        0.00        0.00        0.00    
    6.31        0.00        0.00        0.00    
    7.94        0.00        0.00        0.00    
    10.0        0.00        0.00        0.00    
    12.6        0.00        0.00        0.00    
    15.8        0.00        0.00        0.00    
    20.0        0.00        0.00        0.00    
    25.1        0.00        0.00        0.00    
    31.6        0.00        0.00        0.00    
    39.8        0.00        0.00        0.00    
    50.1        0.00        0.00        0.00    
    63.1        0.00        0.00        0.00    
    79.4        0.00        0.00        0.00    
    100.        0.00        0.00        0.00    
    126.        0.00        0.00        0.00    
    158.        576.        576.        0.00    
    200.       1.058E+03   1.058E+03    0.00    
    251.       1.429E+03   1.429E+03    0.00    
    316.       1.716E+03   1.716E+03    0.00    
    398.       1.940E+03   1.940E+03    0.00    
    501.       2.095E+03   2.095E+03    0.00    
    631.       2.200E+03   2.200E+03    0.00    
    794.       2.286E+03   2.286E+03    0.00    
   1.000E+03   2.291E+03   2.291E+03    0.00    
   1.259E+03   2.270E+03   2.270E+03    0.00    
   1.585E+03   2.133E+03   2.133E+03    0.00    
   1.995E+03   2.001E+03   2.001E+03    0.00    
   2.512E+03   1.924E+03   1.924E+03    0.00    
   3.162E+03   1.867E+03   1.867E+03    0.00    
   3.981E+03   1.823E+03   1.823E+03    0.00    
   5.012E+03   1.774E+03   1.774E+03    0.00    
   6.310E+03   1.739E+03   1.739E+03    0.00    
   7.943E+03   1.726E+03   1.726E+03    0.00    
   1.000E+04   1.735E+03   1.735E+03    0.00    
   1.259E+04   1.767E+03   1.767E+03    0.00    
   1.585E+04   1.798E+03   1.798E+03    0.00    
   1.995E+04   1.822E+03   1.822E+03    0.00    
   2.512E+04   1.826E+03   1.826E+03    0.00    
   3.162E+04   1.822E+03   1.822E+03    0.00    
   3.981E+04   1.812E+03   1.812E+03    0.00    
   5.012E+04   1.790E+03   1.790E+03    0.00    
   6.310E+04   1.791E+03   1.791E+03    0.00    
   7.943E+04   1.791E+03   1.791E+03    0.00    
   1.000E+05   1.791E+03   1.791E+03    0.00    
   1.259E+05   1.791E+03   1.791E+03    0.00    
   1.585E+05   1.792E+03   1.792E+03    0.00    
   1.995E+05   1.792E+03   1.792E+03    0.00    
   2.512E+05   1.792E+03   1.792E+03    0.00    
   3.162E+05   1.791E+03   1.791E+03    0.00    
   3.981E+05   1.791E+03   1.791E+03    0.00    
   5.012E+05   1.791E+03   1.791E+03    0.00    
   6.310E+05   1.791E+03   1.791E+03    0.00    
   7.943E+05   1.791E+03   1.791E+03    0.00    
   1.000E+06   1.791E+03   1.791E+03    0.00    
   1.259E+06   1.791E+03   1.791E+03    0.00    
   1.585E+06   1.791E+03   1.791E+03    0.00    
   1.995E+06   1.791E+03   1.791E+03    0.00    
   2.512E+06   1.791E+03   1.791E+03    0.00    
   3.162E+06   1.790E+03   1.790E+03    0.00    
   3.981E+06   1.790E+03   1.790E+03    0.00    
   5.012E+06   1.790E+03   1.790E+03    0.00    
   6.310E+06   1.790E+03   1.790E+03    0.00    
   7.943E+06   1.790E+03   1.790E+03    0.00    
   1.000E+07   1.790E+03   1.790E+03    0.00    
   1.259E+07   1.790E+03   1.790E+03    0.00    
   1.585E+07   1.790E+03   1.790E+03    0.00    
   1.995E+07   1.790E+03   1.790E+03    0.00    
   2.512E+07   1.790E+03   1.790E+03    0.00    
   3.162E+07   1.790E+03   1.790E+03    0.00    
   3.981E+07   1.790E+03   1.790E+03    0.00    
   5.012E+07   1.790E+03   1.790E+03    0.00    
   6.310E+07   1.790E+03   1.790E+03    0.00    
   7.943E+07   1.790E+03   1.790E+03    0.00    
   1.000E+08   1.789E+03   1.789E+03    0.00    
   1.259E+08   1.789E+03   1.789E+03    0.00    
   1.585E+08   1.789E+03   1.789E+03    0.00    
   1.995E+08   1.789E+03   1.789E+03    0.00    
   2.512E+08   1.789E+03   1.789E+03    0.00    
   3.162E+08   1.789E+03   1.789E+03    0.00    
   3.981E+08   1.789E+03   1.789E+03    0.00    
   5.012E+08   1.789E+03   1.789E+03    0.00    
   6.310E+08   1.789E+03   1.789E+03    0.00    
   7.943E+08   1.789E+03   1.789E+03    0.00    
   1.000E+09   1.789E+03   1.789E+03    0.00    
   1.259E+09   1.789E+03   1.789E+03    0.00    
   1.585E+09   1.789E+03   1.789E+03    0.00    
   1.995E+09   1.789E+03   1.789E+03    0.00    
   2.512E+09   1.789E+03   1.789E+03    0.00    
   3.162E+09   1.789E+03   1.789E+03    0.00    
   3.981E+09   1.789E+03   1.789E+03    0.00    
