 # E(MeV)  SigT  SigInela  SigEla  (mb)
    1.00        156.        156.        0.00    
    1.26        213.        213.        0.00    
    1.58        257.        257.        0.00    
    2.00        292.        292.        0.00    
    2.51        319.        319.        0.00    
    3.16        340.        340.        0.00    
    3.98        353.        353.        0.00    
    5.01        363.        363.        0.00    
    6.31        367.        367.        0.00    
    7.94        370.        370.        0.00    
    10.0        370.        370.        0.00    
    12.6        367.        367.        0.00    
    15.8        355.        355.        0.00    
    20.0        351.        351.        0.00    
    25.1        335.        335.        0.00    
    31.6        314.        314.        0.00    
    39.8        282.        282.        0.00    
    50.1        230.        230.        0.00    
    63.1        160.        160.        0.00    
    79.4        137.        137.        0.00    
    100.        122.        122.        0.00    
    126.        96.6        96.6        0.00    
    158.        75.6        75.6        0.00    
    200.        70.8        70.8        0.00    
    251.        63.9        63.9        0.00    
    316.        63.4        63.4        0.00    
    398.        65.2        65.2        0.00    
    501.        72.3        72.3        0.00    
    631.        76.4        76.4        0.00    
    794.        79.1        79.1        0.00    
   1.000E+03    79.2        79.2        0.00    
   1.259E+03    75.4        75.4        0.00    
   1.585E+03    74.0        74.0        0.00    
   1.995E+03    70.7        70.7        0.00    
   2.512E+03    70.7        70.7        0.00    
   3.162E+03    70.6        70.6        0.00    
   3.981E+03    70.5        70.5        0.00    
   5.012E+03    70.5        70.5        0.00    
   6.310E+03    70.4        70.4        0.00    
   7.943E+03    70.4        70.4        0.00    
   1.000E+04    70.3        70.3        0.00    
   1.259E+04    70.3        70.3        0.00    
   1.585E+04    70.2        70.2        0.00    
   1.995E+04    70.2        70.2        0.00    
   2.512E+04    70.1        70.1        0.00    
   3.162E+04    70.1        70.1        0.00    
   3.981E+04    70.1        70.1        0.00    
   5.012E+04    70.1        70.1        0.00    
   6.310E+04    70.0        70.0        0.00    
   7.943E+04    70.0        70.0        0.00    
   1.000E+05    70.0        70.0        0.00    
   1.259E+05    70.0        70.0        0.00    
   1.585E+05    69.9        69.9        0.00    
   1.995E+05    69.9        69.9        0.00    
   2.512E+05    69.9        69.9        0.00    
   3.162E+05    69.9        69.9        0.00    
   3.981E+05    69.9        69.9        0.00    
   5.012E+05    69.9        69.9        0.00    
   6.310E+05    69.8        69.8        0.00    
   7.943E+05    69.8        69.8        0.00    
   1.000E+06    69.8        69.8        0.00    
   1.259E+06    69.8        69.8        0.00    
   1.585E+06    69.8        69.8        0.00    
   1.995E+06    69.8        69.8        0.00    
   2.512E+06    69.8        69.8        0.00    
   3.162E+06    69.8        69.8        0.00    
   3.981E+06    69.8        69.8        0.00    
   5.012E+06    69.8        69.8        0.00    
   6.310E+06    69.8        69.8        0.00    
   7.943E+06    69.8        69.8        0.00    
   1.000E+07    69.8        69.8        0.00    
   1.259E+07    69.8        69.8        0.00    
   1.585E+07    69.7        69.7        0.00    
   1.995E+07    69.7        69.7        0.00    
   2.512E+07    69.7        69.7        0.00    
   3.162E+07    69.7        69.7        0.00    
   3.981E+07    69.7        69.7        0.00    
   5.012E+07    69.7        69.7        0.00    
   6.310E+07    69.7        69.7        0.00    
   7.943E+07    69.7        69.7        0.00    
   1.000E+08    69.7        69.7        0.00    
   1.259E+08    69.7        69.7        0.00    
   1.585E+08    69.7        69.7        0.00    
   1.995E+08    69.7        69.7        0.00    
   2.512E+08    69.7        69.7        0.00    
   3.162E+08    69.7        69.7        0.00    
   3.981E+08    69.7        69.7        0.00    
   5.012E+08    69.7        69.7        0.00    
   6.310E+08    69.7        69.7        0.00    
   7.943E+08    69.7        69.7        0.00    
   1.000E+09    69.7        69.7        0.00    
   1.259E+09    69.7        69.7        0.00    
   1.585E+09    69.7        69.7        0.00    
   1.995E+09    69.7        69.7        0.00    
   2.512E+09    69.7        69.7        0.00    
   3.162E+09    69.7        69.7        0.00    
   3.981E+09    69.7        69.7        0.00    
