 # E(MeV)  SigT  SigInela  SigEla  (mb)
    1.00        0.00        0.00        0.00    
    1.26        0.00        0.00        0.00    
    1.58        0.00        0.00        0.00    
    2.00        0.00        0.00        0.00    
    2.51        0.00        0.00        0.00    
    3.16        0.00        0.00        0.00    
    3.98        0.00        0.00        0.00    
    5.01        0.00        0.00        0.00    
    6.31        0.00        0.00        0.00    
    7.94        0.00        0.00        0.00    
    10.0        0.00        0.00        0.00    
    12.6        0.00        0.00        0.00    
    15.8        0.00        0.00        0.00    
    20.0        0.00        0.00        0.00    
    25.1        0.00        0.00        0.00    
    31.6        0.00        0.00        0.00    
    39.8        0.00        0.00        0.00    
    50.1        0.00        0.00        0.00    
    63.1        0.00        0.00        0.00    
    79.4        0.00        0.00        0.00    
    100.        163.        163.        0.00    
    126.        354.        354.        0.00    
    158.        499.        499.        0.00    
    200.        612.        612.        0.00    
    251.        688.        688.        0.00    
    316.        737.        737.        0.00    
    398.        777.        777.        0.00    
    501.        772.        772.        0.00    
    631.        754.        754.        0.00    
    794.        671.        671.        0.00    
   1.000E+03    594.        594.        0.00    
   1.259E+03    549.        549.        0.00    
   1.585E+03    516.        516.        0.00    
   1.995E+03    491.        491.        0.00    
   2.512E+03    452.        452.        0.00    
   3.162E+03    445.        445.        0.00    
   3.981E+03    437.        437.        0.00    
   5.012E+03    445.        445.        0.00    
   6.310E+03    456.        456.        0.00    
   7.943E+03    471.        471.        0.00    
   1.000E+04    482.        482.        0.00    
   1.259E+04    484.        484.        0.00    
   1.585E+04    482.        482.        0.00    
   1.995E+04    476.        476.        0.00    
   2.512E+04    465.        465.        0.00    
   3.162E+04    465.        465.        0.00    
   3.981E+04    465.        465.        0.00    
   5.012E+04    465.        465.        0.00    
   6.310E+04    465.        465.        0.00    
   7.943E+04    465.        465.        0.00    
   1.000E+05    465.        465.        0.00    
   1.259E+05    465.        465.        0.00    
   1.585E+05    465.        465.        0.00    
   1.995E+05    465.        465.        0.00    
   2.512E+05    465.        465.        0.00    
   3.162E+05    465.        465.        0.00    
   3.981E+05    465.        465.        0.00    
   5.012E+05    464.        464.        0.00    
   6.310E+05    464.        464.        0.00    
   7.943E+05    464.        464.        0.00    
   1.000E+06    464.        464.        0.00    
   1.259E+06    464.        464.        0.00    
   1.585E+06    464.        464.        0.00    
   1.995E+06    464.        464.        0.00    
   2.512E+06    464.        464.        0.00    
   3.162E+06    464.        464.        0.00    
   3.981E+06    464.        464.        0.00    
   5.012E+06    464.        464.        0.00    
   6.310E+06    464.        464.        0.00    
   7.943E+06    464.        464.        0.00    
   1.000E+07    464.        464.        0.00    
   1.259E+07    464.        464.        0.00    
   1.585E+07    464.        464.        0.00    
   1.995E+07    464.        464.        0.00    
   2.512E+07    464.        464.        0.00    
   3.162E+07    464.        464.        0.00    
   3.981E+07    464.        464.        0.00    
   5.012E+07    464.        464.        0.00    
   6.310E+07    464.        464.        0.00    
   7.943E+07    464.        464.        0.00    
   1.000E+08    463.        463.        0.00    
   1.259E+08    463.        463.        0.00    
   1.585E+08    463.        463.        0.00    
   1.995E+08    463.        463.        0.00    
   2.512E+08    463.        463.        0.00    
   3.162E+08    463.        463.        0.00    
   3.981E+08    463.        463.        0.00    
   5.012E+08    463.        463.        0.00    
   6.310E+08    463.        463.        0.00    
   7.943E+08    463.        463.        0.00    
   1.000E+09    463.        463.        0.00    
   1.259E+09    463.        463.        0.00    
   1.585E+09    463.        463.        0.00    
   1.995E+09    463.        463.        0.00    
   2.512E+09    463.        463.        0.00    
   3.162E+09    463.        463.        0.00    
   3.981E+09    463.        463.        0.00    
