 # E(MeV)  SigT  SigInela  SigEla  (mb)
    1.00        0.00        0.00        0.00    
    1.26        0.00        0.00        0.00    
    1.58        0.00        0.00        0.00    
    2.00        0.00        0.00        0.00    
    2.51        4.02        4.02        0.00    
    3.16        257.        257.        0.00    
    3.98        456.        456.        0.00    
    5.01        614.        614.        0.00    
    6.31        738.        738.        0.00    
    7.94        831.        831.        0.00    
    10.0        903.        903.        0.00    
    12.6        954.        954.        0.00    
    15.8        995.        995.        0.00    
    20.0       1.023E+03   1.023E+03    0.00    
    25.1       1.039E+03   1.039E+03    0.00    
    31.6       1.035E+03   1.035E+03    0.00    
    39.8       1.042E+03   1.042E+03    0.00    
    50.1       1.025E+03   1.025E+03    0.00    
    63.1        996.        996.        0.00    
    79.4        946.        946.        0.00    
    100.        853.        853.        0.00    
    126.        716.        716.        0.00    
    158.        669.        669.        0.00    
    200.        636.        636.        0.00    
    251.        578.        578.        0.00    
    316.        526.        526.        0.00    
    398.        513.        513.        0.00    
    501.        495.        495.        0.00    
    631.        494.        494.        0.00    
    794.        500.        500.        0.00    
   1.000E+03    519.        519.        0.00    
   1.259E+03    530.        530.        0.00    
   1.585E+03    537.        537.        0.00    
   1.995E+03    538.        538.        0.00    
   2.512E+03    528.        528.        0.00    
   3.162E+03    524.        524.        0.00    
   3.981E+03    516.        516.        0.00    
   5.012E+03    515.        515.        0.00    
   6.310E+03    515.        515.        0.00    
   7.943E+03    515.        515.        0.00    
   1.000E+04    515.        515.        0.00    
   1.259E+04    515.        515.        0.00    
   1.585E+04    515.        515.        0.00    
   1.995E+04    515.        515.        0.00    
   2.512E+04    515.        515.        0.00    
   3.162E+04    514.        514.        0.00    
   3.981E+04    514.        514.        0.00    
   5.012E+04    514.        514.        0.00    
   6.310E+04    514.        514.        0.00    
   7.943E+04    514.        514.        0.00    
   1.000E+05    514.        514.        0.00    
   1.259E+05    514.        514.        0.00    
   1.585E+05    514.        514.        0.00    
   1.995E+05    514.        514.        0.00    
   2.512E+05    514.        514.        0.00    
   3.162E+05    514.        514.        0.00    
   3.981E+05    514.        514.        0.00    
   5.012E+05    514.        514.        0.00    
   6.310E+05    514.        514.        0.00    
   7.943E+05    514.        514.        0.00    
   1.000E+06    514.        514.        0.00    
   1.259E+06    513.        513.        0.00    
   1.585E+06    513.        513.        0.00    
   1.995E+06    513.        513.        0.00    
   2.512E+06    513.        513.        0.00    
   3.162E+06    513.        513.        0.00    
   3.981E+06    513.        513.        0.00    
   5.012E+06    513.        513.        0.00    
   6.310E+06    513.        513.        0.00    
   7.943E+06    513.        513.        0.00    
   1.000E+07    513.        513.        0.00    
   1.259E+07    513.        513.        0.00    
   1.585E+07    513.        513.        0.00    
   1.995E+07    513.        513.        0.00    
   2.512E+07    513.        513.        0.00    
   3.162E+07    513.        513.        0.00    
   3.981E+07    513.        513.        0.00    
   5.012E+07    513.        513.        0.00    
   6.310E+07    513.        513.        0.00    
   7.943E+07    513.        513.        0.00    
   1.000E+08    513.        513.        0.00    
   1.259E+08    513.        513.        0.00    
   1.585E+08    513.        513.        0.00    
   1.995E+08    513.        513.        0.00    
   2.512E+08    513.        513.        0.00    
   3.162E+08    513.        513.        0.00    
   3.981E+08    513.        513.        0.00    
   5.012E+08    513.        513.        0.00    
   6.310E+08    513.        513.        0.00    
   7.943E+08    513.        513.        0.00    
   1.000E+09    513.        513.        0.00    
   1.259E+09    513.        513.        0.00    
   1.585E+09    513.        513.        0.00    
   1.995E+09    513.        513.        0.00    
   2.512E+09    513.        513.        0.00    
   3.162E+09    513.        513.        0.00    
   3.981E+09    513.        513.        0.00    
