 # E(MeV)  SigT  SigInela  SigEla  (mb)
    1.00        0.00        0.00        0.00    
    1.26        0.00        0.00        0.00    
    1.58        0.00        0.00        0.00    
    2.00        0.00        0.00        0.00    
    2.51        0.00        0.00        0.00    
    3.16        0.00        0.00        0.00    
    3.98        0.00        0.00        0.00    
    5.01        0.00        0.00        0.00    
    6.31        0.00        0.00        0.00    
    7.94        179.        179.        0.00    
    10.0        649.        649.        0.00    
    12.6       1.013E+03   1.013E+03    0.00    
    15.8       1.284E+03   1.284E+03    0.00    
    20.0       1.502E+03   1.502E+03    0.00    
    25.1       1.648E+03   1.648E+03    0.00    
    31.6       1.741E+03   1.741E+03    0.00    
    39.8       1.776E+03   1.776E+03    0.00    
    50.1       1.729E+03   1.729E+03    0.00    
    63.1       1.592E+03   1.592E+03    0.00    
    79.4       1.563E+03   1.563E+03    0.00    
    100.       1.542E+03   1.542E+03    0.00    
    126.       1.475E+03   1.475E+03    0.00    
    158.       1.409E+03   1.409E+03    0.00    
    200.       1.402E+03   1.402E+03    0.00    
    251.       1.381E+03   1.381E+03    0.00    
    316.       1.387E+03   1.387E+03    0.00    
    398.       1.402E+03   1.402E+03    0.00    
    501.       1.439E+03   1.439E+03    0.00    
    631.       1.462E+03   1.462E+03    0.00    
    794.       1.477E+03   1.477E+03    0.00    
   1.000E+03   1.480E+03   1.480E+03    0.00    
   1.259E+03   1.465E+03   1.465E+03    0.00    
   1.585E+03   1.461E+03   1.461E+03    0.00    
   1.995E+03   1.448E+03   1.448E+03    0.00    
   2.512E+03   1.448E+03   1.448E+03    0.00    
   3.162E+03   1.449E+03   1.449E+03    0.00    
   3.981E+03   1.449E+03   1.449E+03    0.00    
   5.012E+03   1.449E+03   1.449E+03    0.00    
   6.310E+03   1.449E+03   1.449E+03    0.00    
   7.943E+03   1.449E+03   1.449E+03    0.00    
   1.000E+04   1.449E+03   1.449E+03    0.00    
   1.259E+04   1.449E+03   1.449E+03    0.00    
   1.585E+04   1.449E+03   1.449E+03    0.00    
   1.995E+04   1.449E+03   1.449E+03    0.00    
   2.512E+04   1.449E+03   1.449E+03    0.00    
   3.162E+04   1.449E+03   1.449E+03    0.00    
   3.981E+04   1.449E+03   1.449E+03    0.00    
   5.012E+04   1.449E+03   1.449E+03    0.00    
   6.310E+04   1.449E+03   1.449E+03    0.00    
   7.943E+04   1.448E+03   1.448E+03    0.00    
   1.000E+05   1.448E+03   1.448E+03    0.00    
   1.259E+05   1.448E+03   1.448E+03    0.00    
   1.585E+05   1.448E+03   1.448E+03    0.00    
   1.995E+05   1.448E+03   1.448E+03    0.00    
   2.512E+05   1.448E+03   1.448E+03    0.00    
   3.162E+05   1.448E+03   1.448E+03    0.00    
   3.981E+05   1.448E+03   1.448E+03    0.00    
   5.012E+05   1.448E+03   1.448E+03    0.00    
   6.310E+05   1.448E+03   1.448E+03    0.00    
   7.943E+05   1.448E+03   1.448E+03    0.00    
   1.000E+06   1.448E+03   1.448E+03    0.00    
   1.259E+06   1.448E+03   1.448E+03    0.00    
   1.585E+06   1.448E+03   1.448E+03    0.00    
   1.995E+06   1.447E+03   1.447E+03    0.00    
   2.512E+06   1.447E+03   1.447E+03    0.00    
   3.162E+06   1.447E+03   1.447E+03    0.00    
   3.981E+06   1.447E+03   1.447E+03    0.00    
   5.012E+06   1.447E+03   1.447E+03    0.00    
   6.310E+06   1.447E+03   1.447E+03    0.00    
   7.943E+06   1.447E+03   1.447E+03    0.00    
   1.000E+07   1.447E+03   1.447E+03    0.00    
   1.259E+07   1.447E+03   1.447E+03    0.00    
   1.585E+07   1.447E+03   1.447E+03    0.00    
   1.995E+07   1.447E+03   1.447E+03    0.00    
   2.512E+07   1.447E+03   1.447E+03    0.00    
   3.162E+07   1.447E+03   1.447E+03    0.00    
   3.981E+07   1.447E+03   1.447E+03    0.00    
   5.012E+07   1.447E+03   1.447E+03    0.00    
   6.310E+07   1.447E+03   1.447E+03    0.00    
   7.943E+07   1.447E+03   1.447E+03    0.00    
   1.000E+08   1.447E+03   1.447E+03    0.00    
   1.259E+08   1.447E+03   1.447E+03    0.00    
   1.585E+08   1.447E+03   1.447E+03    0.00    
   1.995E+08   1.447E+03   1.447E+03    0.00    
   2.512E+08   1.447E+03   1.447E+03    0.00    
   3.162E+08   1.447E+03   1.447E+03    0.00    
   3.981E+08   1.447E+03   1.447E+03    0.00    
   5.012E+08   1.447E+03   1.447E+03    0.00    
   6.310E+08   1.447E+03   1.447E+03    0.00    
   7.943E+08   1.447E+03   1.447E+03    0.00    
   1.000E+09   1.447E+03   1.447E+03    0.00    
   1.259E+09   1.447E+03   1.447E+03    0.00    
   1.585E+09   1.447E+03   1.447E+03    0.00    
   1.995E+09   1.447E+03   1.447E+03    0.00    
   2.512E+09   1.447E+03   1.447E+03    0.00    
   3.162E+09   1.447E+03   1.447E+03    0.00    
   3.981E+09   1.447E+03   1.447E+03    0.00    
