 # E(MeV)  SigT  SigInela  SigEla  (mb)
    1.00        0.00        0.00        0.00    
    1.26        0.00        0.00        0.00    
    1.58        0.00        0.00        0.00    
    2.00        0.00        0.00        0.00    
    2.51        0.00        0.00        0.00    
    3.16        0.00        0.00        0.00    
    3.98        0.00        0.00        0.00    
    5.01        0.00        0.00        0.00    
    6.31        0.00        0.00        0.00    
    7.94        0.00        0.00        0.00    
    10.0        0.00        0.00        0.00    
    12.6        0.00        0.00        0.00    
    15.8        0.00        0.00        0.00    
    20.0        0.00        0.00        0.00    
    25.1        0.00        0.00        0.00    
    31.6        0.00        0.00        0.00    
    39.8        0.00        0.00        0.00    
    50.1        0.00        0.00        0.00    
    63.1        0.00        0.00        0.00    
    79.4        287.        287.        0.00    
    100.       1.010E+03   1.010E+03    0.00    
    126.       1.571E+03   1.571E+03    0.00    
    158.       2.009E+03   2.009E+03    0.00    
    200.       2.350E+03   2.350E+03    0.00    
    251.       2.596E+03   2.596E+03    0.00    
    316.       2.770E+03   2.770E+03    0.00    
    398.       2.911E+03   2.911E+03    0.00    
    501.       2.952E+03   2.952E+03    0.00    
    631.       2.955E+03   2.955E+03    0.00    
    794.       2.819E+03   2.819E+03    0.00    
   1.000E+03   2.682E+03   2.682E+03    0.00    
   1.259E+03   2.605E+03   2.605E+03    0.00    
   1.585E+03   2.547E+03   2.547E+03    0.00    
   1.995E+03   2.502E+03   2.502E+03    0.00    
   2.512E+03   2.423E+03   2.423E+03    0.00    
   3.162E+03   2.413E+03   2.413E+03    0.00    
   3.981E+03   2.400E+03   2.400E+03    0.00    
   5.012E+03   2.426E+03   2.426E+03    0.00    
   6.310E+03   2.453E+03   2.453E+03    0.00    
   7.943E+03   2.492E+03   2.492E+03    0.00    
   1.000E+04   2.521E+03   2.521E+03    0.00    
   1.259E+04   2.527E+03   2.527E+03    0.00    
   1.585E+04   2.523E+03   2.523E+03    0.00    
   1.995E+04   2.512E+03   2.512E+03    0.00    
   2.512E+04   2.487E+03   2.487E+03    0.00    
   3.162E+04   2.488E+03   2.488E+03    0.00    
   3.981E+04   2.489E+03   2.489E+03    0.00    
   5.012E+04   2.489E+03   2.489E+03    0.00    
   6.310E+04   2.490E+03   2.490E+03    0.00    
   7.943E+04   2.490E+03   2.490E+03    0.00    
   1.000E+05   2.490E+03   2.490E+03    0.00    
   1.259E+05   2.490E+03   2.490E+03    0.00    
   1.585E+05   2.490E+03   2.490E+03    0.00    
   1.995E+05   2.490E+03   2.490E+03    0.00    
   2.512E+05   2.490E+03   2.490E+03    0.00    
   3.162E+05   2.490E+03   2.490E+03    0.00    
   3.981E+05   2.490E+03   2.490E+03    0.00    
   5.012E+05   2.490E+03   2.490E+03    0.00    
   6.310E+05   2.490E+03   2.490E+03    0.00    
   7.943E+05   2.489E+03   2.489E+03    0.00    
   1.000E+06   2.489E+03   2.489E+03    0.00    
   1.259E+06   2.489E+03   2.489E+03    0.00    
   1.585E+06   2.489E+03   2.489E+03    0.00    
   1.995E+06   2.489E+03   2.489E+03    0.00    
   2.512E+06   2.489E+03   2.489E+03    0.00    
   3.162E+06   2.489E+03   2.489E+03    0.00    
   3.981E+06   2.489E+03   2.489E+03    0.00    
   5.012E+06   2.489E+03   2.489E+03    0.00    
   6.310E+06   2.489E+03   2.489E+03    0.00    
   7.943E+06   2.489E+03   2.489E+03    0.00    
   1.000E+07   2.488E+03   2.488E+03    0.00    
   1.259E+07   2.488E+03   2.488E+03    0.00    
   1.585E+07   2.488E+03   2.488E+03    0.00    
   1.995E+07   2.488E+03   2.488E+03    0.00    
   2.512E+07   2.488E+03   2.488E+03    0.00    
   3.162E+07   2.488E+03   2.488E+03    0.00    
   3.981E+07   2.488E+03   2.488E+03    0.00    
   5.012E+07   2.488E+03   2.488E+03    0.00    
   6.310E+07   2.488E+03   2.488E+03    0.00    
   7.943E+07   2.488E+03   2.488E+03    0.00    
   1.000E+08   2.488E+03   2.488E+03    0.00    
   1.259E+08   2.488E+03   2.488E+03    0.00    
   1.585E+08   2.488E+03   2.488E+03    0.00    
   1.995E+08   2.488E+03   2.488E+03    0.00    
   2.512E+08   2.488E+03   2.488E+03    0.00    
   3.162E+08   2.488E+03   2.488E+03    0.00    
   3.981E+08   2.488E+03   2.488E+03    0.00    
   5.012E+08   2.488E+03   2.488E+03    0.00    
   6.310E+08   2.488E+03   2.488E+03    0.00    
   7.943E+08   2.488E+03   2.488E+03    0.00    
   1.000E+09   2.488E+03   2.488E+03    0.00    
   1.259E+09   2.488E+03   2.488E+03    0.00    
   1.585E+09   2.488E+03   2.488E+03    0.00    
   1.995E+09   2.488E+03   2.488E+03    0.00    
   2.512E+09   2.488E+03   2.488E+03    0.00    
   3.162E+09   2.488E+03   2.488E+03    0.00    
   3.981E+09   2.488E+03   2.488E+03    0.00    
