 # E(MeV)  SigT  SigInela  SigEla  (mb)
    1.00        6.27        3.83        2.44    
    1.26        9.56        5.70        3.86    
    1.58        14.7        8.64        6.08    
    2.00        22.9        13.4        9.53    
    2.51        35.8        21.0        14.9    
    3.16        56.6        33.2        23.4    
    3.98        90.0        52.8        37.3    
    5.01        145.        82.8        61.8    
    6.31        234.        126.        107.    
    7.94        373.        185.        188.    
    10.0        570.        254.        315.    
    12.6        792.        321.        471.    
    15.8       1.062E+03    383.        679.    
    20.0       1.225E+03    399.        826.    
    25.1       1.226E+03    373.        853.    
    31.6       1.112E+03    331.        781.    
    39.8        951.        292.        659.    
    50.1        782.        260.        522.    
    63.1        625.        234.        391.    
    79.4        494.        213.        280.    
    100.        393.        197.        196.    
    126.        322.        186.        136.    
    158.        278.        180.        98.3    
    200.        255.        179.        76.3    
    251.        246.        181.        65.1    
    316.        247.        186.        60.5    
    398.        252.        192.        59.3    
    501.        258.        198.        59.7    
    631.        263.        203.        60.5    
    794.        267.        206.        61.2    
   1.000E+03    269.        207.        61.6    
   1.259E+03    269.        208.        61.8    
   1.585E+03    270.        208.        61.8    
   1.995E+03    270.        208.        61.8    
   2.512E+03    270.        208.        61.8    
   3.162E+03    270.        208.        61.8    
   3.981E+03    270.        208.        61.8    
   5.012E+03    270.        208.        61.8    
   6.310E+03    270.        208.        61.8    
   7.943E+03    270.        208.        61.8    
   1.000E+04    270.        208.        61.8    
   1.259E+04    270.        208.        61.8    
   1.585E+04    270.        208.        61.8    
   1.995E+04    270.        208.        61.8    
   2.512E+04    270.        208.        61.8    
   3.162E+04    270.        208.        61.8    
   3.981E+04    270.        208.        61.8    
   5.012E+04    270.        208.        61.8    
   6.310E+04    270.        208.        61.8    
   7.943E+04    270.        208.        61.8    
   1.000E+05    270.        208.        61.8    
   1.259E+05    270.        208.        61.8    
   1.585E+05    270.        208.        61.8    
   1.995E+05    270.        208.        61.8    
   2.512E+05    270.        208.        61.8    
   3.162E+05    270.        208.        61.8    
   3.981E+05    270.        208.        61.8    
   5.012E+05    270.        208.        61.8    
   6.310E+05    270.        208.        61.8    
   7.943E+05    270.        208.        61.8    
   1.000E+06    270.        208.        61.8    
   1.259E+06    270.        208.        61.8    
   1.585E+06    270.        208.        61.8    
   1.995E+06    270.        208.        61.8    
   2.512E+06    270.        208.        61.8    
   3.162E+06    270.        208.        61.8    
   3.981E+06    270.        208.        61.8    
   5.012E+06    270.        208.        61.8    
   6.310E+06    270.        208.        61.8    
   7.943E+06    270.        208.        61.8    
   1.000E+07    270.        208.        61.8    
   1.259E+07    270.        208.        61.8    
   1.585E+07    270.        208.        61.8    
   1.995E+07    270.        208.        61.8    
   2.512E+07    270.        208.        61.8    
   3.162E+07    270.        208.        61.8    
   3.981E+07    270.        208.        61.8    
   5.012E+07    270.        208.        61.8    
   6.310E+07    270.        208.        61.8    
   7.943E+07    270.        208.        61.8    
   1.000E+08    270.        208.        61.8    
   1.259E+08    270.        208.        61.8    
   1.585E+08    270.        208.        61.8    
   1.995E+08    270.        208.        61.8    
   2.512E+08    270.        208.        61.8    
   3.162E+08    270.        208.        61.8    
   3.981E+08    270.        208.        61.8    
   5.012E+08    270.        208.        61.8    
   6.310E+08    270.        208.        61.8    
   7.943E+08    270.        208.        61.8    
   1.000E+09    270.        208.        61.8    
   1.259E+09    270.        208.        61.8    
   1.585E+09    270.        208.        61.8    
   1.995E+09    270.        208.        61.8    
   2.512E+09    270.        208.        61.8    
   3.162E+09    270.        208.        61.8    
   3.981E+09    270.        208.        61.8    
