 # E(MeV)  SigT  SigInela  SigEla  (mb)
    1.00       3.493E+03   3.201E+03    292.    
    1.26       3.101E+03   2.619E+03    482.    
    1.58       2.788E+03   2.148E+03    640.    
    2.00       2.534E+03   1.767E+03    767.    
    2.51       2.322E+03   1.457E+03    865.    
    3.16       2.134E+03   1.204E+03    930.    
    3.98       1.953E+03    996.        957.    
    5.01       1.762E+03    825.        937.    
    6.31       1.546E+03    682.        864.    
    7.94       1.299E+03    562.        737.    
    10.0       1.027E+03    456.        570.    
    12.6        767.        363.        404.    
    15.8        592.        296.        296.    
    20.0        428.        222.        206.    
    25.1        293.        156.        136.    
    31.6        194.        108.        85.9    
    39.8        130.        77.7        52.1    
    50.1        91.7        60.6        31.1    
    63.1        70.0        51.3        18.7    
    79.4        57.5        45.8        11.8    
    100.        50.1        42.1        8.01    
    126.        45.7        39.7        6.05    
    158.        43.5        38.4        5.10    
    200.        42.8        38.1        4.71    
    251.        43.3        38.7        4.61    
    316.        44.4        39.7        4.68    
    398.        45.8        41.0        4.80    
    501.        47.2        42.3        4.94    
    631.        48.3        43.3        5.05    
    794.        49.0        43.9        5.12    
   1.000E+03    49.4        44.2        5.16    
   1.259E+03    49.5        44.4        5.18    
   1.585E+03    49.6        44.4        5.18    
   1.995E+03    49.6        44.4        5.18    
   2.512E+03    49.6        44.4        5.18    
   3.162E+03    49.6        44.4        5.18    
   3.981E+03    49.6        44.4        5.18    
   5.012E+03    49.6        44.4        5.18    
   6.310E+03    49.6        44.4        5.18    
   7.943E+03    49.6        44.4        5.18    
   1.000E+04    49.6        44.4        5.18    
   1.259E+04    49.6        44.4        5.18    
   1.585E+04    49.6        44.4        5.18    
   1.995E+04    49.6        44.4        5.18    
   2.512E+04    49.6        44.4        5.18    
   3.162E+04    49.6        44.4        5.18    
   3.981E+04    49.6        44.4        5.18    
   5.012E+04    49.6        44.4        5.18    
   6.310E+04    49.6        44.4        5.18    
   7.943E+04    49.6        44.4        5.18    
   1.000E+05    49.6        44.4        5.18    
   1.259E+05    49.6        44.4        5.18    
   1.585E+05    49.6        44.4        5.18    
   1.995E+05    49.6        44.4        5.18    
   2.512E+05    49.6        44.4        5.18    
   3.162E+05    49.6        44.4        5.18    
   3.981E+05    49.6        44.4        5.18    
   5.012E+05    49.6        44.4        5.18    
   6.310E+05    49.6        44.4        5.18    
   7.943E+05    49.6        44.4        5.18    
   1.000E+06    49.6        44.4        5.18    
   1.259E+06    49.6        44.4        5.18    
   1.585E+06    49.6        44.4        5.18    
   1.995E+06    49.6        44.4        5.18    
   2.512E+06    49.6        44.4        5.18    
   3.162E+06    49.6        44.4        5.18    
   3.981E+06    49.6        44.4        5.18    
   5.012E+06    49.6        44.4        5.18    
   6.310E+06    49.6        44.4        5.18    
   7.943E+06    49.6        44.4        5.18    
   1.000E+07    49.6        44.4        5.18    
   1.259E+07    49.6        44.4        5.18    
   1.585E+07    49.6        44.4        5.18    
   1.995E+07    49.6        44.4        5.18    
   2.512E+07    49.6        44.4        5.18    
   3.162E+07    49.6        44.4        5.18    
   3.981E+07    49.6        44.4        5.18    
   5.012E+07    49.6        44.4        5.18    
   6.310E+07    49.6        44.4        5.18    
   7.943E+07    49.6        44.4        5.18    
   1.000E+08    49.6        44.4        5.18    
   1.259E+08    49.6        44.4        5.18    
   1.585E+08    49.6        44.4        5.18    
   1.995E+08    49.6        44.4        5.18    
   2.512E+08    49.6        44.4        5.18    
   3.162E+08    49.6        44.4        5.18    
   3.981E+08    49.6        44.4        5.18    
   5.012E+08    49.6        44.4        5.18    
   6.310E+08    49.6        44.4        5.18    
   7.943E+08    49.6        44.4        5.18    
   1.000E+09    49.6        44.4        5.18    
   1.259E+09    49.6        44.4        5.18    
   1.585E+09    49.6        44.4        5.18    
   1.995E+09    49.6        44.4        5.18    
   2.512E+09    49.6        44.4        5.18    
   3.162E+09    49.6        44.4        5.18    
   3.981E+09    49.6        44.4        5.18    
