 # E(MeV)  SigT  SigInela  SigEla  (mb)
    1.00       6.619E+03   4.168E+03   2.451E+03
    1.26       6.412E+03   3.812E+03   2.599E+03
    1.58       6.138E+03   3.509E+03   2.630E+03
    2.00       5.785E+03   3.249E+03   2.537E+03
    2.51       5.358E+03   3.025E+03   2.333E+03
    3.16       4.892E+03   2.833E+03   2.058E+03
    3.98       4.462E+03   2.668E+03   1.794E+03
    5.01       4.179E+03   2.525E+03   1.655E+03
    6.31       4.146E+03   2.401E+03   1.745E+03
    7.94       4.367E+03   2.294E+03   2.074E+03
    10.0       4.663E+03   2.201E+03   2.462E+03
    12.6       4.724E+03   2.122E+03   2.602E+03
    15.8       4.288E+03   2.055E+03   2.233E+03
    20.0       3.904E+03   2.005E+03   1.899E+03
    25.1       3.526E+03   1.942E+03   1.584E+03
    31.6       3.318E+03   1.833E+03   1.485E+03
    39.8       3.300E+03   1.698E+03   1.602E+03
    50.1       3.417E+03   1.553E+03   1.864E+03
    63.1       3.512E+03   1.414E+03   2.097E+03
    79.4       3.394E+03   1.291E+03   2.102E+03
    100.       3.017E+03   1.194E+03   1.823E+03
    126.       2.528E+03   1.126E+03   1.402E+03
    158.       2.126E+03   1.089E+03   1.036E+03
    200.       1.905E+03   1.081E+03    823.    
    251.       1.839E+03   1.097E+03    742.    
    316.       1.859E+03   1.127E+03    732.    
    398.       1.912E+03   1.164E+03    748.    
    501.       1.969E+03   1.200E+03    769.    
    631.       2.014E+03   1.227E+03    787.    
    794.       2.043E+03   1.245E+03    798.    
   1.000E+03   2.058E+03   1.254E+03    804.    
   1.259E+03   2.065E+03   1.258E+03    806.    
   1.585E+03   2.067E+03   1.259E+03    807.    
   1.995E+03   2.067E+03   1.260E+03    807.    
   2.512E+03   2.067E+03   1.260E+03    807.    
   3.162E+03   2.067E+03   1.260E+03    807.    
   3.981E+03   2.067E+03   1.260E+03    807.    
   5.012E+03   2.067E+03   1.260E+03    807.    
   6.310E+03   2.067E+03   1.260E+03    807.    
   7.943E+03   2.067E+03   1.260E+03    807.    
   1.000E+04   2.067E+03   1.260E+03    807.    
   1.259E+04   2.067E+03   1.260E+03    807.    
   1.585E+04   2.067E+03   1.260E+03    807.    
   1.995E+04   2.067E+03   1.260E+03    807.    
   2.512E+04   2.067E+03   1.260E+03    807.    
   3.162E+04   2.067E+03   1.260E+03    807.    
   3.981E+04   2.067E+03   1.260E+03    807.    
   5.012E+04   2.067E+03   1.260E+03    807.    
   6.310E+04   2.067E+03   1.260E+03    807.    
   7.943E+04   2.067E+03   1.260E+03    807.    
   1.000E+05   2.067E+03   1.260E+03    807.    
   1.259E+05   2.067E+03   1.260E+03    807.    
   1.585E+05   2.067E+03   1.260E+03    807.    
   1.995E+05   2.067E+03   1.260E+03    807.    
   2.512E+05   2.067E+03   1.260E+03    807.    
   3.162E+05   2.067E+03   1.260E+03    807.    
   3.981E+05   2.067E+03   1.260E+03    807.    
   5.012E+05   2.067E+03   1.260E+03    807.    
   6.310E+05   2.067E+03   1.260E+03    807.    
   7.943E+05   2.067E+03   1.260E+03    807.    
   1.000E+06   2.067E+03   1.260E+03    807.    
   1.259E+06   2.067E+03   1.260E+03    807.    
   1.585E+06   2.067E+03   1.260E+03    807.    
   1.995E+06   2.067E+03   1.260E+03    807.    
   2.512E+06   2.067E+03   1.260E+03    807.    
   3.162E+06   2.067E+03   1.260E+03    807.    
   3.981E+06   2.067E+03   1.260E+03    807.    
   5.012E+06   2.067E+03   1.260E+03    807.    
   6.310E+06   2.067E+03   1.260E+03    807.    
   7.943E+06   2.067E+03   1.260E+03    807.    
   1.000E+07   2.067E+03   1.260E+03    807.    
   1.259E+07   2.067E+03   1.260E+03    807.    
   1.585E+07   2.067E+03   1.260E+03    807.    
   1.995E+07   2.067E+03   1.260E+03    807.    
   2.512E+07   2.067E+03   1.260E+03    807.    
   3.162E+07   2.067E+03   1.260E+03    807.    
   3.981E+07   2.067E+03   1.260E+03    807.    
   5.012E+07   2.067E+03   1.260E+03    807.    
   6.310E+07   2.067E+03   1.260E+03    807.    
   7.943E+07   2.067E+03   1.260E+03    807.    
   1.000E+08   2.067E+03   1.260E+03    807.    
   1.259E+08   2.067E+03   1.260E+03    807.    
   1.585E+08   2.067E+03   1.260E+03    807.    
   1.995E+08   2.067E+03   1.260E+03    807.    
   2.512E+08   2.067E+03   1.260E+03    807.    
   3.162E+08   2.067E+03   1.260E+03    807.    
   3.981E+08   2.067E+03   1.260E+03    807.    
   5.012E+08   2.067E+03   1.260E+03    807.    
   6.310E+08   2.067E+03   1.260E+03    807.    
   7.943E+08   2.067E+03   1.260E+03    807.    
   1.000E+09   2.067E+03   1.260E+03    807.    
   1.259E+09   2.067E+03   1.260E+03    807.    
   1.585E+09   2.067E+03   1.260E+03    807.    
   1.995E+09   2.067E+03   1.260E+03    807.    
   2.512E+09   2.067E+03   1.260E+03    807.    
   3.162E+09   2.067E+03   1.260E+03    807.    
   3.981E+09   2.067E+03   1.260E+03    807.    
