 # E(MeV)  SigT  SigInela  SigEla  (mb)
    1.00        8.50        7.79       0.710    
    1.26        12.9        10.9        2.00    
    1.58        20.0        15.4        4.59    
    2.00        31.7        22.1        9.59    
    2.51        51.0        32.0        19.0    
    3.16        82.7        46.6        36.0    
    3.98        132.        67.5        64.9    
    5.01        205.        96.2        109.    
    6.31        301.        133.        168.    
    7.94        402.        174.        228.    
    10.0        476.        212.        264.    
    12.6        493.        233.        259.    
    15.8        480.        240.        240.    
    20.0        399.        207.        192.    
    25.1        289.        154.        134.    
    31.6        194.        108.        85.8    
    39.8        130.        77.7        52.1    
    50.1        91.7        60.6        31.1    
    63.1        70.0        51.3        18.7    
    79.4        57.5        45.8        11.8    
    100.        50.1        42.1        8.01    
    126.        45.7        39.7        6.05    
    158.        43.5        38.4        5.10    
    200.        42.8        38.1        4.71    
    251.        43.3        38.7        4.61    
    316.        44.4        39.7        4.68    
    398.        45.8        41.0        4.80    
    501.        47.2        42.3        4.94    
    631.        48.3        43.3        5.05    
    794.        49.0        43.9        5.12    
   1.000E+03    49.4        44.2        5.16    
   1.259E+03    49.5        44.4        5.18    
   1.585E+03    49.6        44.4        5.18    
   1.995E+03    49.6        44.4        5.18    
   2.512E+03    49.6        44.4        5.18    
   3.162E+03    49.6        44.4        5.18    
   3.981E+03    49.6        44.4        5.18    
   5.012E+03    49.6        44.4        5.18    
   6.310E+03    49.6        44.4        5.18    
   7.943E+03    49.6        44.4        5.18    
   1.000E+04    49.6        44.4        5.18    
   1.259E+04    49.6        44.4        5.18    
   1.585E+04    49.6        44.4        5.18    
   1.995E+04    49.6        44.4        5.18    
   2.512E+04    49.6        44.4        5.18    
   3.162E+04    49.6        44.4        5.18    
   3.981E+04    49.6        44.4        5.18    
   5.012E+04    49.6        44.4        5.18    
   6.310E+04    49.6        44.4        5.18    
   7.943E+04    49.6        44.4        5.18    
   1.000E+05    49.6        44.4        5.18    
   1.259E+05    49.6        44.4        5.18    
   1.585E+05    49.6        44.4        5.18    
   1.995E+05    49.6        44.4        5.18    
   2.512E+05    49.6        44.4        5.18    
   3.162E+05    49.6        44.4        5.18    
   3.981E+05    49.6        44.4        5.18    
   5.012E+05    49.6        44.4        5.18    
   6.310E+05    49.6        44.4        5.18    
   7.943E+05    49.6        44.4        5.18    
   1.000E+06    49.6        44.4        5.18    
   1.259E+06    49.6        44.4        5.18    
   1.585E+06    49.6        44.4        5.18    
   1.995E+06    49.6        44.4        5.18    
   2.512E+06    49.6        44.4        5.18    
   3.162E+06    49.6        44.4        5.18    
   3.981E+06    49.6        44.4        5.18    
   5.012E+06    49.6        44.4        5.18    
   6.310E+06    49.6        44.4        5.18    
   7.943E+06    49.6        44.4        5.18    
   1.000E+07    49.6        44.4        5.18    
   1.259E+07    49.6        44.4        5.18    
   1.585E+07    49.6        44.4        5.18    
   1.995E+07    49.6        44.4        5.18    
   2.512E+07    49.6        44.4        5.18    
   3.162E+07    49.6        44.4        5.18    
   3.981E+07    49.6        44.4        5.18    
   5.012E+07    49.6        44.4        5.18    
   6.310E+07    49.6        44.4        5.18    
   7.943E+07    49.6        44.4        5.18    
   1.000E+08    49.6        44.4        5.18    
   1.259E+08    49.6        44.4        5.18    
   1.585E+08    49.6        44.4        5.18    
   1.995E+08    49.6        44.4        5.18    
   2.512E+08    49.6        44.4        5.18    
   3.162E+08    49.6        44.4        5.18    
   3.981E+08    49.6        44.4        5.18    
   5.012E+08    49.6        44.4        5.18    
   6.310E+08    49.6        44.4        5.18    
   7.943E+08    49.6        44.4        5.18    
   1.000E+09    49.6        44.4        5.18    
   1.259E+09    49.6        44.4        5.18    
   1.585E+09    49.6        44.4        5.18    
   1.995E+09    49.6        44.4        5.18    
   2.512E+09    49.6        44.4        5.18    
   3.162E+09    49.6        44.4        5.18    
   3.981E+09    49.6        44.4        5.18    
